Thorlabs Shack-Hartmann Wavefront Sensor

Model                  ,       WFS150-5C
Serial Number          ,       M00278808

Date MM-DD-YYYY        ,       03-12-2025
Time HH:MM:SS          ,       16:00:40


*** CAMERA ***
Camera Type            ,       Thorlabs DCU224M
Camera SN              ,       4102610379
Resolution X           ,       1280
Resolution Y           ,       1024
Exposure Time [ms]     ,       2.739
Master Gain            ,       1.000
Averages               ,       1
Average Type           ,       Normal


*** BEAM ***
Beam Center X [mm]     ,      -0.015
Beam Center Y [mm]     ,      -0.018
Beam Diameter X [mm]   ,       6.831
Beam Diameter Y [mm]   ,       5.403


*** PUPIL ***
Circular               ,       1
Use Beam Centroid      ,       1
Use Beam Dia           ,       1
Wavefront Calc In Pupil,       0
Pupil Diameter X [mm]  ,       6.159
Pupil Diameter Y [mm]  ,       6.159
Pupil Center X [mm]    ,      -0.015
Pupil Center Y [mm]    ,      -0.018


*** ZERNIKE FIT ***
Zernike Orders Auto    ,       0
Zernike Orders         ,       10
Zernike Modes          ,       66
Unit                   ,       waves
Index  Order  Frequency  Coefficient
   1,     0,     0,        5.178
   2,     1,    -1,       -0.563
   3,     1,     1,        0.305
   4,     2,    -2,       -0.001
   5,     2,     0,       -4.799
   6,     2,     2,       -0.164
   7,     3,    -3,       -0.159
   8,     3,    -1,        0.163
   9,     3,     1,        0.016
  10,     3,     3,       -0.033
  11,     4,    -4,        0.098
  12,     4,    -2,       -0.064
  13,     4,     0,        0.040
  14,     4,     2,       -0.083
  15,     4,     4,        0.078
  16,     5,    -5,        0.093
  17,     5,    -3,       -0.097
  18,     5,    -1,        0.108
  19,     5,     1,        0.005
  20,     5,     3,       -0.021
  21,     5,     5,        0.039
  22,     6,    -6,       -0.112
  23,     6,    -4,        0.075
  24,     6,    -2,       -0.030
  25,     6,     0,        0.015
  26,     6,     2,       -0.033
  27,     6,     4,        0.042
  28,     6,     6,       -0.073
  29,     7,    -7,       -0.043
  30,     7,    -5,        0.047
  31,     7,    -3,       -0.055
  32,     7,    -1,        0.055
  33,     7,     1,        0.002
  34,     7,     3,       -0.005
  35,     7,     5,        0.014
  36,     7,     7,       -0.036
  37,     8,    -8,        0.068
  38,     8,    -6,       -0.046
  39,     8,    -4,        0.031
  40,     8,    -2,       -0.018
  41,     8,     0,       -0.006
  42,     8,     2,       -0.006
  43,     8,     4,        0.003
  44,     8,     6,       -0.022
  45,     8,     8,        0.029
  46,     9,    -9,        0.001
  47,     9,    -7,       -0.012
  48,     9,    -5,        0.013
  49,     9,    -3,       -0.016
  50,     9,    -1,        0.016
  51,     9,     1,       -0.003
  52,     9,     3,        0.002
  53,     9,     5,        0.002
  54,     9,     7,       -0.003
  55,     9,     9,        0.010
  56,    10,   -10,       -0.021
  57,    10,    -8,        0.014
  58,    10,    -6,       -0.011
  59,    10,    -4,        0.009
  60,    10,    -2,       -0.004
  61,    10,     0,       -0.008
  62,    10,     2,        0.005
  63,    10,     4,       -0.010
  64,    10,     6,       -0.004
  65,    10,     8,        0.004
  66,    10,    10,       -0.018

Fit Error Mean [arcmin]  ,   8.420e-12
Fit Error StdDev [arcmin],   3.344e-04


*** RMS WAVEFRONT VARIATIONS ***
Unit                   ,       waves
Order  Variation
   0,      5.178
   1,      0.641
   2,      4.802
   3,      0.231
   4,      0.168
   5,      0.178
   6,      0.166
   7,      0.108
   8,      0.097
   9,      0.030
  10,      0.038


*** FOURIER NOTATION ***
Fourier Order          ,       6
Fourier M              ,       2.230
Fourier J0             ,       0.047
Fourier J45            ,       0.009


*** OPTOMETRIC NOTATION ***
Optometric Sphere [dpt],       2.278
Optometric Cyl. [dpt]  ,      -0.096
Optometric Axis [deg]  ,       5.701

Radius of Curvature[mm],     450.526


*** WAVEFRONT ***
Reference              ,       Internal Reference
Unit                   ,       waves
Wavelength [nm]        ,        633.000
Type                   ,       Reconstructed
Calculation Area       ,       entire area
PV                     ,      18.221
RMS                    ,       4.393
RMS weighted           ,       4.387
Spots X                ,       37
Spots Y                ,       29
y / x [mm],    -2.700,    -2.550,    -2.400,    -2.250,    -2.100,    -1.950,    -1.800,    -1.650,    -1.500,    -1.350,    -1.200,    -1.050,    -0.900,    -0.750,    -0.600,    -0.450,    -0.300,    -0.150,     0.000,     0.150,     0.300,     0.450,     0.600,     0.750,     0.900,     1.050,     1.200,     1.350,     1.500,     1.650,     1.800,     1.950,     2.100,     2.250,     2.400,     2.550,     2.700,
     2.100,       NaN,       NaN,       NaN,   -16.109,   -14.929,   -13.817,   -12.787,   -11.846,   -10.994,   -10.231,    -9.552,    -8.956,    -8.438,    -7.998,    -7.636,    -7.350,    -7.143,    -7.014,    -6.966,    -6.999,    -7.111,    -7.304,    -7.576,    -7.926,    -8.356,    -8.864,    -9.452,   -10.121,   -10.872,   -11.707,   -12.626,   -13.628,   -14.710,       NaN,       NaN,       NaN,       NaN,
     1.950,       NaN,       NaN,       NaN,   -15.140,   -13.941,   -12.818,   -11.782,   -10.836,    -9.981,    -9.214,    -8.533,    -7.935,    -7.416,    -6.975,    -6.613,    -6.329,    -6.124,    -5.999,    -5.954,    -5.989,    -6.105,    -6.301,    -6.575,    -6.927,    -7.356,    -7.862,    -8.447,    -9.111,    -9.857,   -10.685,   -11.597,   -12.592,   -13.668,   -14.823,       NaN,       NaN,       NaN,
     1.800,       NaN,       NaN,   -15.538,   -14.258,   -13.046,   -11.915,   -10.872,    -9.921,    -9.061,    -8.290,    -7.604,    -7.001,    -6.478,    -6.034,    -5.669,    -5.384,    -5.178,    -5.053,    -5.009,    -5.046,    -5.163,    -5.359,    -5.634,    -5.986,    -6.415,    -6.920,    -7.503,    -8.165,    -8.907,    -9.731,   -10.639,   -11.630,   -12.703,   -13.856,   -15.090,       NaN,       NaN,
     1.650,       NaN,   -16.081,   -14.729,   -13.437,   -12.218,   -11.083,   -10.038,    -9.083,    -8.220,    -7.444,    -6.754,    -6.146,    -5.620,    -5.173,    -4.805,    -4.518,    -4.311,    -4.186,    -4.141,    -4.178,    -4.295,    -4.492,    -4.766,    -5.118,    -5.546,    -6.051,    -6.632,    -7.292,    -8.032,    -8.855,    -9.760,   -10.749,   -11.820,   -12.971,   -14.203,   -15.521,       NaN,
     1.500,       NaN,   -15.334,   -13.970,   -12.674,   -11.454,   -10.320,    -9.275,    -8.320,    -7.454,    -6.676,    -5.983,    -5.373,    -4.843,    -4.394,    -4.025,    -3.736,    -3.528,    -3.402,    -3.357,    -3.394,    -3.510,    -3.706,    -3.980,    -4.331,    -4.758,    -5.262,    -5.842,    -6.501,    -7.240,    -8.061,    -8.965,    -9.952,   -11.021,   -12.171,   -13.399,   -14.713,       NaN,
     1.350,   -16.072,   -14.639,   -13.272,   -11.977,   -10.761,    -9.630,    -8.587,    -7.633,    -6.767,    -5.988,    -5.293,    -4.681,    -4.150,    -3.699,    -3.329,    -3.039,    -2.831,    -2.704,    -2.659,    -2.695,    -2.811,    -3.006,    -3.279,    -3.628,    -4.054,    -4.556,    -5.135,    -5.793,    -6.531,    -7.351,    -8.255,    -9.241,   -10.309,   -11.456,   -12.681,   -13.991,   -15.401,
     1.200,   -15.449,   -14.011,   -12.647,   -11.357,   -10.146,    -9.019,    -7.979,    -7.027,    -6.161,    -5.382,    -4.686,    -4.073,    -3.541,    -3.089,    -2.718,    -2.428,    -2.219,    -2.092,    -2.046,    -2.081,    -2.196,    -2.390,    -2.662,    -3.010,    -3.434,    -3.934,    -4.512,    -5.169,    -5.906,    -6.726,    -7.629,    -8.615,    -9.682,   -10.827,   -12.050,   -13.354,   -14.756,
     1.050,   -14.900,   -13.463,   -12.103,   -10.819,    -9.614,    -8.492,    -7.454,    -6.503,    -5.638,    -4.858,    -4.161,    -3.547,    -3.014,    -2.562,    -2.191,    -1.900,    -1.691,    -1.563,    -1.517,    -1.551,    -1.665,    -1.857,    -2.127,    -2.473,    -2.896,    -3.395,    -3.971,    -4.627,    -5.364,    -6.184,    -7.087,    -8.073,    -9.140,   -10.285,   -11.505,   -12.805,   -14.200,
     0.900,   -14.436,   -13.001,   -11.647,   -10.368,    -9.167,    -8.048,    -7.012,    -6.061,    -5.196,    -4.415,    -3.717,    -3.102,    -2.569,    -2.116,    -1.744,    -1.453,    -1.244,    -1.115,    -1.068,    -1.101,    -1.213,    -1.404,    -1.672,    -2.016,    -2.437,    -2.935,    -3.511,    -4.166,    -4.903,    -5.723,    -6.628,    -7.615,    -8.682,    -9.827,   -11.046,   -12.343,   -13.733,
     0.750,   -14.061,   -12.628,   -11.277,   -10.003,    -8.805,    -7.687,    -6.651,    -5.700,    -4.834,    -4.052,    -3.353,    -2.737,    -2.202,    -1.748,    -1.376,    -1.084,    -0.874,    -0.745,    -0.696,    -0.728,    -0.839,    -1.028,    -1.295,    -1.638,    -2.057,    -2.554,    -3.129,    -3.785,    -4.522,    -5.344,    -6.249,    -7.238,    -8.307,    -9.453,   -10.673,   -11.969,   -13.355,
     0.600,   -13.773,   -12.342,   -10.994,    -9.722,    -8.526,    -7.408,    -6.371,    -5.419,    -4.551,    -3.767,    -3.066,    -2.449,    -1.913,    -1.458,    -1.085,    -0.792,    -0.581,    -0.451,    -0.401,    -0.432,    -0.541,    -0.729,    -0.994,    -1.336,    -1.755,    -2.251,    -2.826,    -3.482,    -4.221,    -5.044,    -5.952,    -6.943,    -8.015,    -9.163,   -10.384,   -11.681,   -13.066,
     0.450,   -13.570,   -12.140,   -10.794,    -9.523,    -8.326,    -7.208,    -6.170,    -5.216,    -4.345,    -3.559,    -2.857,    -2.238,    -1.701,    -1.245,    -0.871,    -0.577,    -0.365,    -0.234,    -0.183,    -0.212,    -0.320,    -0.507,    -0.771,    -1.112,    -1.530,    -2.027,    -2.602,    -3.259,    -3.999,    -4.824,    -5.734,    -6.728,    -7.802,    -8.953,   -10.177,   -11.475,   -12.862,
     0.300,   -13.449,   -12.018,   -10.673,    -9.402,    -8.206,    -7.086,    -6.047,    -5.090,    -4.218,    -3.430,    -2.727,    -2.106,    -1.567,    -1.110,    -0.735,    -0.440,    -0.227,    -0.094,    -0.042,    -0.070,    -0.177,    -0.362,    -0.626,    -0.966,    -1.384,    -1.881,    -2.457,    -3.115,    -3.857,    -4.684,    -5.597,    -6.593,    -7.670,    -8.824,   -10.050,   -11.351,   -12.740,
     0.150,   -13.406,   -11.975,   -10.630,    -9.359,    -8.162,    -7.042,    -6.001,    -5.044,    -4.170,    -3.381,    -2.676,    -2.054,    -1.514,    -1.056,    -0.679,    -0.383,    -0.168,    -0.034,     0.019,    -0.007,    -0.113,    -0.297,    -0.559,    -0.900,    -1.318,    -1.815,    -2.392,    -3.052,    -3.795,    -4.624,    -5.539,    -6.537,    -7.616,    -8.772,   -10.002,   -11.305,   -12.697,
     0.000,   -13.441,   -12.009,   -10.664,    -9.393,    -8.196,    -7.076,    -6.035,    -5.076,    -4.202,    -3.412,    -2.706,    -2.083,    -1.543,    -1.083,    -0.705,    -0.408,    -0.191,    -0.055,     0.000,    -0.025,    -0.129,    -0.312,    -0.574,    -0.914,    -1.332,    -1.830,    -2.408,    -3.069,    -3.814,    -4.644,    -5.560,    -6.560,    -7.640,    -8.798,   -10.028,   -11.334,   -12.729,
    -0.150,   -13.551,   -12.119,   -10.774,    -9.504,    -8.308,    -7.188,    -6.147,    -5.190,    -4.316,    -3.526,    -2.819,    -2.196,    -1.655,    -1.194,    -0.814,    -0.515,    -0.297,    -0.159,    -0.102,    -0.124,    -0.227,    -0.409,    -0.670,    -1.009,    -1.428,    -1.926,    -2.505,    -3.166,    -3.912,    -4.743,    -5.659,    -6.659,    -7.740,    -8.898,   -10.129,   -11.437,   -12.834,
    -0.300,   -13.739,   -12.306,   -10.962,    -9.693,    -8.498,    -7.379,    -6.340,    -5.384,    -4.511,    -3.722,    -3.016,    -2.393,    -1.850,    -1.389,    -1.007,    -0.706,    -0.486,    -0.345,    -0.286,    -0.306,    -0.407,    -0.587,    -0.847,    -1.186,    -1.604,    -2.102,    -2.682,    -3.344,    -4.090,    -4.921,    -5.836,    -6.836,    -7.916,    -9.072,   -10.303,   -11.611,   -13.010,
    -0.450,   -14.005,   -12.571,   -11.227,    -9.960,    -8.767,    -7.650,    -6.614,    -5.659,    -4.788,    -4.000,    -3.295,    -2.672,    -2.129,    -1.666,    -1.283,    -0.980,    -0.756,    -0.613,    -0.551,    -0.569,    -0.668,    -0.846,    -1.105,    -1.443,    -1.861,    -2.359,    -2.938,    -3.600,    -4.346,    -5.176,    -6.091,    -7.088,    -8.166,    -9.321,   -10.550,   -11.856,   -13.255,
    -0.600,   -14.350,   -12.915,   -11.571,   -10.305,    -9.114,    -8.000,    -6.966,    -6.014,    -5.145,    -4.359,    -3.655,    -3.032,    -2.488,    -2.024,    -1.639,    -1.334,    -1.107,    -0.961,    -0.896,    -0.911,    -1.008,    -1.184,    -1.442,    -1.779,    -2.196,    -2.694,    -3.274,    -3.935,    -4.680,    -5.509,    -6.422,    -7.417,    -8.492,    -9.643,   -10.869,   -12.174,   -13.572,
    -0.750,   -14.776,   -13.339,   -11.994,   -10.729,    -9.539,    -8.427,    -7.395,    -6.446,    -5.579,    -4.795,    -4.092,    -3.469,    -2.925,    -2.460,    -2.073,    -1.765,    -1.536,    -1.386,    -1.318,    -1.331,    -1.425,    -1.600,    -1.856,    -2.192,    -2.609,    -3.107,    -3.686,    -4.348,    -5.092,    -5.919,    -6.830,    -7.822,    -8.893,   -10.041,   -11.264,   -12.566,   -13.963,
    -0.900,   -15.281,   -13.842,   -12.496,   -11.230,   -10.041,    -8.931,    -7.901,    -6.953,    -6.088,    -5.305,    -4.603,    -3.981,    -3.437,    -2.970,    -2.581,    -2.270,    -2.038,    -1.886,    -1.815,    -1.825,    -1.917,    -2.091,    -2.346,    -2.682,    -3.099,    -3.597,    -4.176,    -4.837,    -5.581,    -6.407,    -7.315,    -8.304,    -9.372,   -10.517,   -11.736,   -13.035,   -14.430,
    -1.050,   -15.866,   -14.425,   -13.077,   -11.809,   -10.620,    -9.509,    -8.480,    -7.533,    -6.670,    -5.888,    -5.187,    -4.564,    -4.019,    -3.552,    -3.161,    -2.848,    -2.614,    -2.459,    -2.386,    -2.394,    -2.484,    -2.657,    -2.911,    -3.247,    -3.665,    -4.163,    -4.743,    -5.404,    -6.147,    -6.972,    -7.879,    -8.865,    -9.931,   -11.072,   -12.288,   -13.584,   -14.977,
    -1.200,   -16.529,   -15.086,   -13.736,   -12.467,   -11.275,   -10.163,    -9.134,    -8.187,    -7.323,    -6.542,    -5.841,    -5.218,    -4.673,    -4.204,    -3.812,    -3.498,    -3.262,    -3.105,    -3.030,    -3.037,    -3.126,    -3.299,    -3.553,    -3.890,    -4.308,    -4.807,    -5.387,    -6.049,    -6.792,    -7.616,    -8.521,    -9.506,   -10.569,   -11.708,   -12.922,   -14.216,   -15.607,
    -1.350,   -17.266,   -15.826,   -14.475,   -13.203,   -12.009,   -10.895,    -9.863,    -8.915,    -8.051,    -7.269,    -6.568,    -5.945,    -5.399,    -4.930,    -4.537,    -4.221,    -3.984,    -3.827,    -3.751,    -3.757,    -3.846,    -4.019,    -4.274,    -4.611,    -5.030,    -5.530,    -6.111,    -6.773,    -7.516,    -8.340,    -9.244,   -10.228,   -11.289,   -12.426,   -13.638,   -14.931,   -16.319,
    -1.500,   -18.072,   -16.642,   -15.294,   -14.022,   -12.826,   -11.709,   -10.674,    -9.724,    -8.857,    -8.074,    -7.372,    -6.748,    -6.202,    -5.733,    -5.339,    -5.023,    -4.786,    -4.628,    -4.552,    -4.558,    -4.647,    -4.820,    -5.076,    -5.414,    -5.833,    -6.334,    -6.915,    -7.577,    -8.319,    -9.142,   -10.046,   -11.029,   -12.089,   -13.225,   -14.437,   -15.728,       NaN,
    -1.650,       NaN,   -17.529,   -16.193,   -14.925,   -13.729,   -12.609,   -11.571,   -10.618,    -9.749,    -8.963,    -8.259,    -7.635,    -7.088,    -6.619,    -6.225,    -5.909,    -5.672,    -5.514,    -5.438,    -5.445,    -5.534,    -5.707,    -5.962,    -6.300,    -6.719,    -7.219,    -7.800,    -8.461,    -9.202,   -10.023,   -10.926,   -11.907,   -12.967,   -14.104,   -15.315,   -16.606,       NaN,
    -1.800,       NaN,       NaN,   -17.167,   -15.911,   -14.720,   -13.600,   -12.560,   -11.603,   -10.731,    -9.943,    -9.237,    -8.611,    -8.064,    -7.594,    -7.200,    -6.884,    -6.647,    -6.490,    -6.414,    -6.420,    -6.509,    -6.681,    -6.935,    -7.271,    -7.688,    -8.186,    -8.764,    -9.422,   -10.160,   -10.980,   -11.881,   -12.862,   -13.922,   -15.060,   -16.273,       NaN,       NaN,
    -1.950,       NaN,       NaN,   -18.201,   -16.972,   -15.794,   -14.680,   -13.641,   -12.682,   -11.806,   -11.015,   -10.306,    -9.678,    -9.129,    -8.658,    -8.265,    -7.949,    -7.712,    -7.554,    -7.478,    -7.483,    -7.570,    -7.740,    -7.991,    -8.324,    -8.737,    -9.230,    -9.803,   -10.457,   -11.192,   -12.009,   -12.909,   -13.891,   -14.954,   -16.096,       NaN,       NaN,       NaN,
    -2.100,       NaN,       NaN,       NaN,   -18.082,   -16.932,   -15.832,   -14.799,   -13.841,   -12.963,   -12.169,   -11.457,   -10.827,   -10.276,    -9.804,    -9.409,    -9.093,    -8.855,    -8.697,    -8.619,    -8.622,    -8.707,    -8.873,    -9.120,    -9.447,    -9.855,   -10.343,   -10.911,   -11.561,   -12.293,   -13.110,   -14.012,   -14.999,   -16.071,   -17.225,       NaN,       NaN,       NaN,
